LabVIEW Measurement	
Writer_Version	2
Reader_Version	2
Separator	Tab
Decimal_Separator	.
Multi_Headings	Yes
X_Columns	One
Time_Pref	Absolute
Operator	student_2
Date	1903/12/31
Time	19:00:00
***End_of_Header***	
	
Channels	2		
Samples	1000	1000	
Date	2021/03/03	2021/03/03	
Time	15:33:53.6665644833530277699	15:33:53.6665853161076993436	
Y_Unit_Label	Volts	Volts	
X_Dimension	Time	Time	
X0	0.0000000000000000E+0	0.0000000000000000E+0	
Delta_X	0.005000	0.005000	
***End_of_Header***			
X_Value	Voltage_0	Voltage_1	Comment
0.000000	-0.012084	1.613136
0.005000	-0.009541	1.600396
0.010000	-0.012084	1.596573
0.015000	-0.010812	1.599121
0.020000	-0.005726	1.596573
0.025000	-0.010812	1.591477
0.030000	-0.005726	1.595299
0.035000	-0.012084	1.581285
0.040000	-0.009541	1.580011
0.045000	-0.004455	1.565997
0.050000	-0.009541	1.564723
0.055000	-0.008269	1.557079
0.060000	-0.009541	1.555804
0.065000	-0.001911	1.553256
0.070000	-0.012084	1.544338
0.075000	-0.012084	1.543064
0.080000	-0.013355	1.539242
0.085000	-0.008269	1.526502
0.090000	-0.013355	1.525228
0.095000	-0.003183	1.521406
0.100000	-0.003183	1.515036
0.105000	-0.009541	1.516310
0.110000	-0.005726	1.515036
0.115000	-0.001911	1.503569
0.120000	-0.013355	1.497199
0.125000	-0.004455	1.493377
0.130000	-0.005726	1.488281
0.135000	-0.000640	1.479363
0.140000	-0.006998	1.476815
0.145000	-0.001911	1.479363
0.150000	-0.004455	1.470445
0.155000	-0.004455	1.466622
0.160000	-0.009541	1.455156
0.165000	-0.008269	1.447512
0.170000	0.001903	1.444964
0.175000	0.003175	1.437320
0.180000	-0.000640	1.423305
0.185000	-0.005726	1.418209
0.190000	-0.003183	1.410565
0.195000	-0.006998	1.409291
0.200000	-0.004455	1.392729
0.205000	-0.004455	1.388907
0.210000	0.003175	1.381262
0.215000	-0.003183	1.372344
0.220000	0.001903	1.355782
0.225000	0.004446	1.355782
0.230000	0.001903	1.343042
0.235000	-0.001911	1.327753
0.240000	0.004446	1.323931
0.245000	0.001903	1.321383
0.250000	0.004446	1.302273
0.255000	0.000632	1.293354
0.260000	0.004446	1.285710
0.265000	0.003175	1.274244
0.270000	0.001903	1.257682
0.275000	0.006989	1.248763
0.280000	0.009533	1.237297
0.285000	0.013347	1.232201
0.290000	0.008261	1.214365
0.295000	0.006989	1.210542
0.300000	0.004446	1.195254
0.305000	0.006989	1.191432
0.310000	0.008261	1.183788
0.315000	0.010804	1.177418
0.320000	0.006989	1.149389
0.325000	0.009533	1.150663
0.330000	0.009533	1.136649
0.335000	0.014619	1.127731
0.340000	0.009533	1.114990
0.345000	0.006989	1.106072
0.350000	0.006989	1.095880
0.355000	0.013347	1.084414
0.360000	0.012076	1.074221
0.365000	0.017162	1.062755
0.370000	0.010804	1.046193
0.375000	0.015890	1.041097
0.380000	0.012076	1.036000
0.385000	0.013347	1.019438
0.390000	0.006989	1.001602
0.395000	0.013347	1.000328
0.400000	0.014619	0.985039
0.405000	0.023520	0.971025
0.410000	0.015890	0.962107
0.415000	0.018433	0.942996
0.420000	0.010804	0.941722
0.425000	0.017162	0.922612
0.430000	0.014619	0.920064
0.435000	0.022248	0.899679
0.440000	0.018433	0.885665
0.445000	0.019705	0.869103
0.450000	0.018433	0.860184
0.455000	0.019705	0.851266
0.460000	0.023520	0.841074
0.465000	0.023520	0.821963
0.470000	0.026063	0.810497
0.475000	0.022248	0.799031
0.480000	0.023520	0.783743
0.485000	0.019705	0.776098
0.490000	0.024791	0.760810
0.495000	0.024791	0.755714
0.500000	0.028606	0.744248
0.505000	0.020977	0.725137
0.510000	0.026063	0.709849
0.515000	0.020977	0.697109
0.520000	0.031149	0.681820
0.525000	0.027334	0.676724
0.530000	0.037507	0.661436
0.535000	0.033692	0.655066
0.540000	0.033692	0.637229
0.545000	0.024791	0.627037
0.550000	0.029877	0.607927
0.555000	0.026063	0.591364
0.560000	0.027334	0.578624
0.565000	0.029877	0.569706
0.570000	0.032421	0.554417
0.575000	0.036235	0.546773
0.580000	0.037507	0.525115
0.585000	0.034964	0.508552
0.590000	0.029877	0.500908
0.595000	0.031149	0.493264
0.600000	0.033692	0.476701
0.605000	0.036235	0.463961
0.610000	0.036235	0.444851
0.615000	0.036235	0.434658
0.620000	0.032421	0.416822
0.625000	0.040050	0.409178
0.630000	0.033692	0.392616
0.635000	0.034964	0.376053
0.640000	0.036235	0.362039
0.645000	0.043865	0.355669
0.650000	0.037507	0.341654
0.655000	0.042593	0.330188
0.660000	0.036235	0.319996
0.665000	0.036235	0.299611
0.670000	0.031149	0.288145
0.675000	0.034964	0.274131
0.680000	0.036235	0.258842
0.685000	0.043865	0.253746
0.690000	0.037507	0.237184
0.695000	0.038778	0.226992
0.700000	0.036235	0.212977
0.705000	0.037507	0.192593
0.710000	0.032421	0.187497
0.715000	0.037507	0.169660
0.720000	0.034964	0.167112
0.725000	0.038778	0.148002
0.730000	0.033692	0.131439
0.735000	0.034964	0.121247
0.740000	0.034964	0.114877
0.745000	0.042593	0.099589
0.750000	0.038778	0.091945
0.755000	0.041321	0.070286
0.760000	0.036235	0.060094
0.765000	0.041321	0.046079
0.770000	0.037507	0.049902
0.775000	0.041321	0.034613
0.780000	0.036235	0.023147
0.785000	0.036235	0.009133
0.790000	0.036235	-0.002334
0.795000	0.038778	-0.022718
0.800000	0.036235	-0.026540
0.805000	0.037507	-0.039281
0.810000	0.036235	-0.048199
0.815000	0.032421	-0.062213
0.820000	0.033692	-0.069857
0.825000	0.034964	-0.082598
0.830000	0.032421	-0.092790
0.835000	0.036235	-0.106804
0.840000	0.041321	-0.111900
0.845000	0.040050	-0.132285
0.850000	0.038778	-0.141203
0.855000	0.037507	-0.150121
0.860000	0.033692	-0.166683
0.865000	0.033692	-0.179424
0.870000	0.034964	-0.193438
0.875000	0.036235	-0.194712
0.880000	0.037507	-0.207452
0.885000	0.036235	-0.215097
0.890000	0.040050	-0.221467
0.895000	0.029877	-0.238029
0.900000	0.036235	-0.248221
0.905000	0.029877	-0.263510
0.910000	0.036235	-0.271154
0.915000	0.034964	-0.280072
0.920000	0.040050	-0.297909
0.925000	0.034964	-0.301731
0.930000	0.036235	-0.313197
0.935000	0.032421	-0.319567
0.940000	0.036235	-0.325937
0.945000	0.028606	-0.338677
0.950000	0.031149	-0.347596
0.955000	0.031149	-0.355240
0.960000	0.031149	-0.362884
0.965000	0.031149	-0.367980
0.970000	0.034964	-0.383268
0.975000	0.029877	-0.388365
0.980000	0.028606	-0.406201
0.985000	0.027334	-0.408749
0.990000	0.032421	-0.417667
0.995000	0.028606	-0.425311
1.000000	0.028606	-0.436778
1.005000	0.026063	-0.438052
1.010000	0.026063	-0.444422
1.015000	0.031149	-0.454614
1.020000	0.019705	-0.468628
1.025000	0.022248	-0.474999
1.030000	0.015890	-0.477547
1.035000	0.024791	-0.486465
1.040000	0.026063	-0.500479
1.045000	0.028606	-0.510671
1.050000	0.023520	-0.513220
1.055000	0.020977	-0.517042
1.060000	0.020977	-0.520864
1.065000	0.023520	-0.531056
1.070000	0.017162	-0.539974
1.075000	0.017162	-0.551440
1.080000	0.017162	-0.556537
1.085000	0.017162	-0.555262
1.090000	0.020977	-0.562907
1.095000	0.018433	-0.579469
1.100000	0.013347	-0.582017
1.105000	0.013347	-0.590935
1.110000	0.017162	-0.589661
1.115000	0.015890	-0.602402
1.120000	0.019705	-0.599854
1.125000	0.013347	-0.611320
1.130000	0.014619	-0.607498
1.135000	0.005718	-0.618964
1.140000	0.009533	-0.626608
1.145000	0.004446	-0.631704
1.150000	0.009533	-0.632978
1.155000	0.009533	-0.635526
1.160000	0.013347	-0.640622
1.165000	0.012076	-0.644445
1.170000	0.013347	-0.646993
1.175000	0.009533	-0.646993
1.180000	0.005718	-0.661007
1.185000	0.010804	-0.664829
1.190000	0.014619	-0.667377
1.195000	0.009533	-0.666103
1.200000	0.008261	-0.681391
1.205000	0.003175	-0.676295
1.210000	-0.000640	-0.681391
1.215000	-0.001911	-0.680117
1.220000	0.009533	-0.692858
1.225000	0.004446	-0.689036
1.230000	0.003175	-0.700502
1.235000	0.004446	-0.692858
1.240000	0.004446	-0.695406
1.245000	0.004446	-0.689036
1.250000	0.004446	-0.700502
1.255000	-0.000640	-0.700502
1.260000	0.003175	-0.711968
1.265000	0.001903	-0.710694
1.270000	0.001903	-0.720886
1.275000	-0.000640	-0.717064
1.280000	-0.004455	-0.722160
1.285000	-0.004455	-0.722160
1.290000	-0.004455	-0.720886
1.295000	-0.000640	-0.722160
1.300000	-0.001911	-0.725982
1.305000	0.000632	-0.733627
1.310000	-0.003183	-0.736175
1.315000	-0.003183	-0.736175
1.320000	-0.009541	-0.733627
1.325000	0.000632	-0.732353
1.330000	-0.006998	-0.731079
1.335000	-0.008269	-0.738723
1.340000	-0.010812	-0.743819
1.345000	-0.006998	-0.752737
1.350000	-0.005726	-0.741271
1.355000	-0.001911	-0.738723
1.360000	-0.006998	-0.738723
1.365000	-0.004455	-0.738723
1.370000	-0.009541	-0.738723
1.375000	-0.003183	-0.748915
1.380000	-0.010812	-0.745093
1.385000	-0.004455	-0.748915
1.390000	-0.006998	-0.746367
1.395000	-0.006998	-0.750189
1.400000	-0.009541	-0.750189
1.405000	-0.010812	-0.752737
1.410000	-0.012084	-0.750189
1.415000	-0.010812	-0.756559
1.420000	-0.009541	-0.745093
1.425000	-0.005726	-0.751463
1.430000	-0.004455	-0.751463
1.435000	-0.009541	-0.752737
1.440000	-0.012084	-0.746367
1.445000	-0.015898	-0.748915
1.450000	-0.012084	-0.748915
1.455000	-0.009541	-0.754011
1.460000	-0.009541	-0.755285
1.465000	-0.013355	-0.755285
1.470000	-0.006998	-0.746367
1.475000	-0.009541	-0.746367
1.480000	-0.006998	-0.741271
1.485000	-0.010812	-0.750189
1.490000	-0.009541	-0.755285
1.495000	-0.012084	-0.752737
1.500000	-0.013355	-0.755285
1.505000	-0.015898	-0.746367
1.510000	-0.010812	-0.754011
1.515000	-0.014627	-0.739997
1.520000	-0.008269	-0.754011
1.525000	-0.010812	-0.756559
1.530000	-0.009541	-0.756559
1.535000	-0.012084	-0.754011
1.540000	-0.013355	-0.754011
1.545000	-0.013355	-0.745093
1.550000	-0.010812	-0.747641
1.555000	-0.010812	-0.747641
1.560000	-0.009541	-0.760381
1.565000	-0.014627	-0.754011
1.570000	-0.017170	-0.754011
1.575000	-0.013355	-0.754011
1.580000	-0.014627	-0.754011
1.585000	-0.014627	-0.751463
1.590000	-0.017170	-0.755285
1.595000	-0.014627	-0.752737
1.600000	-0.018442	-0.751463
1.605000	-0.010812	-0.754011
1.610000	-0.010812	-0.751463
1.615000	-0.006998	-0.750189
1.620000	-0.015898	-0.745093
1.625000	-0.012084	-0.742545
1.630000	-0.017170	-0.738723
1.635000	-0.013355	-0.743819
1.640000	-0.010812	-0.746367
1.645000	-0.013355	-0.748915
1.650000	-0.012084	-0.743819
1.655000	-0.008269	-0.743819
1.660000	-0.014627	-0.748915
1.665000	-0.014627	-0.748915
1.670000	-0.012084	-0.739997
1.675000	-0.014627	-0.743819
1.680000	-0.015898	-0.743819
1.685000	-0.014627	-0.739997
1.690000	-0.012084	-0.745093
1.695000	-0.015898	-0.746367
1.700000	-0.010812	-0.747641
1.705000	-0.019713	-0.742545
1.710000	-0.014627	-0.739997
1.715000	-0.014627	-0.738723
1.720000	-0.009541	-0.742545
1.725000	-0.008269	-0.739997
1.730000	-0.005726	-0.742545
1.735000	-0.010812	-0.738723
1.740000	-0.010812	-0.745093
1.745000	-0.013355	-0.731079
1.750000	-0.013355	-0.742545
1.755000	-0.009541	-0.737449
1.760000	-0.009541	-0.739997
1.765000	-0.009541	-0.738723
1.770000	-0.008269	-0.738723
1.775000	-0.006998	-0.737449
1.780000	-0.009541	-0.743819
1.785000	-0.010812	-0.737449
1.790000	-0.012084	-0.743819
1.795000	-0.009541	-0.738723
1.800000	-0.010812	-0.741271
1.805000	-0.009541	-0.741271
1.810000	-0.012084	-0.738723
1.815000	-0.006998	-0.739997
1.820000	-0.014627	-0.731079
1.825000	-0.013355	-0.742545
1.830000	-0.018442	-0.733627
1.835000	-0.012084	-0.734901
1.840000	-0.009541	-0.728530
1.845000	-0.006998	-0.738723
1.850000	-0.005726	-0.736175
1.855000	-0.005726	-0.733627
1.860000	-0.009541	-0.738723
1.865000	-0.014627	-0.733627
1.870000	-0.010812	-0.732353
1.875000	-0.010812	-0.729805
1.880000	-0.008269	-0.734901
1.885000	-0.008269	-0.734901
1.890000	-0.009541	-0.734901
1.895000	-0.014627	-0.732353
1.900000	-0.009541	-0.733627
1.905000	-0.013355	-0.733627
1.910000	-0.010812	-0.734901
1.915000	-0.015898	-0.738723
1.920000	-0.013355	-0.741271
1.925000	-0.010812	-0.733627
1.930000	-0.005726	-0.739997
1.935000	-0.004455	-0.731079
1.940000	-0.009541	-0.739997
1.945000	-0.009541	-0.728530
1.950000	-0.010812	-0.728530
1.955000	-0.008269	-0.731079
1.960000	-0.008269	-0.737449
1.965000	-0.010812	-0.734901
1.970000	-0.014627	-0.734901
1.975000	-0.012084	-0.736175
1.980000	-0.013355	-0.729805
1.985000	-0.006998	-0.728530
1.990000	-0.013355	-0.728530
1.995000	-0.010812	-0.738723
2.000000	-0.014627	-0.731079
2.005000	-0.010812	-0.736175
2.010000	-0.008269	-0.728530
2.015000	-0.005726	-0.734901
2.020000	-0.010812	-0.727256
2.025000	-0.009541	-0.734901
2.030000	-0.017170	-0.728530
2.035000	-0.012084	-0.734901
2.040000	-0.014627	-0.733627
2.045000	-0.010812	-0.733627
2.050000	-0.014627	-0.733627
2.055000	-0.009541	-0.733627
2.060000	-0.005726	-0.728530
2.065000	-0.004455	-0.732353
2.070000	-0.013355	-0.731079
2.075000	-0.013355	-0.734901
2.080000	-0.018442	-0.727256
2.085000	-0.009541	-0.729805
2.090000	-0.005726	-0.731079
2.095000	-0.004455	-0.737449
2.100000	-0.010812	-0.732353
2.105000	-0.008269	-0.736175
2.110000	-0.010812	-0.727256
2.115000	-0.008269	-0.737449
2.120000	-0.009541	-0.728530
2.125000	-0.010812	-0.737449
2.130000	-0.013355	-0.733627
2.135000	-0.010812	-0.727256
2.140000	-0.013355	-0.725982
2.145000	-0.012084	-0.731079
2.150000	-0.009541	-0.724708
2.155000	-0.008269	-0.734901
2.160000	-0.010812	-0.728530
2.165000	-0.013355	-0.738723
2.170000	-0.013355	-0.729805
2.175000	-0.013355	-0.731079
2.180000	-0.006998	-0.723434
2.185000	-0.013355	-0.728530
2.190000	-0.010812	-0.728530
2.195000	-0.013355	-0.737449
2.200000	-0.008269	-0.728530
2.205000	-0.010812	-0.737449
2.210000	-0.006998	-0.732353
2.215000	-0.013355	-0.736175
2.220000	-0.010812	-0.734901
2.225000	-0.010812	-0.728530
2.230000	-0.010812	-0.728530
2.235000	-0.008269	-0.733627
2.240000	-0.004455	-0.731079
2.245000	-0.010812	-0.733627
2.250000	-0.012084	-0.733627
2.255000	-0.015898	-0.728530
2.260000	-0.013355	-0.728530
2.265000	-0.010812	-0.724708
2.270000	-0.006998	-0.731079
2.275000	-0.012084	-0.728530
2.280000	-0.009541	-0.739997
2.285000	-0.010812	-0.729805
2.290000	-0.013355	-0.732353
2.295000	-0.006998	-0.724708
2.300000	-0.010812	-0.731079
2.305000	-0.010812	-0.728530
2.310000	-0.014627	-0.728530
2.315000	-0.012084	-0.727256
2.320000	-0.008269	-0.724708
2.325000	-0.004455	-0.733627
2.330000	-0.012084	-0.733627
2.335000	-0.014627	-0.733627
2.340000	-0.017170	-0.728530
2.345000	-0.017170	-0.734901
2.350000	-0.013355	-0.728530
2.355000	-0.006998	-0.736175
2.360000	-0.009541	-0.729805
2.365000	-0.004455	-0.733627
2.370000	-0.010812	-0.727256
2.375000	-0.014627	-0.728530
2.380000	-0.013355	-0.728530
2.385000	-0.010812	-0.729805
2.390000	-0.005726	-0.723434
2.395000	-0.010812	-0.736175
2.400000	-0.009541	-0.729805
2.405000	-0.017170	-0.728530
2.410000	-0.009541	-0.727256
2.415000	-0.014627	-0.724708
2.420000	-0.008269	-0.732353
2.425000	-0.008269	-0.727256
2.430000	-0.009541	-0.737449
2.435000	-0.010812	-0.728530
2.440000	-0.006998	-0.728530
2.445000	-0.013355	-0.728530
2.450000	-0.005726	-0.728530
2.455000	-0.009541	-0.724708
2.460000	-0.010812	-0.736175
2.465000	-0.014627	-0.728530
2.470000	-0.006998	-0.733627
2.475000	-0.005726	-0.728530
2.480000	-0.004455	-0.737449
2.485000	-0.009541	-0.724708
2.490000	-0.009541	-0.731079
2.495000	-0.013355	-0.723434
2.500000	-0.008269	-0.732353
2.505000	-0.010812	-0.728530
2.510000	-0.010812	-0.734901
2.515000	-0.015898	-0.734901
2.520000	-0.009541	-0.729805
2.525000	-0.009541	-0.722160
2.530000	-0.008269	-0.727256
2.535000	-0.005726	-0.729805
2.540000	-0.009541	-0.724708
2.545000	-0.009541	-0.727256
2.550000	-0.010812	-0.731079
2.555000	-0.009541	-0.731079
2.560000	-0.010812	-0.732353
2.565000	-0.010812	-0.724708
2.570000	-0.014627	-0.731079
2.575000	-0.008269	-0.729805
2.580000	-0.013355	-0.724708
2.585000	-0.010812	-0.731079
2.590000	-0.012084	-0.731079
2.595000	-0.003183	-0.733627
2.600000	-0.010812	-0.728530
2.605000	-0.004455	-0.729805
2.610000	-0.009541	-0.733627
2.615000	-0.009541	-0.733627
2.620000	-0.015898	-0.728530
2.625000	-0.013355	-0.732353
2.630000	-0.009541	-0.724708
2.635000	-0.008269	-0.728530
2.640000	-0.012084	-0.724708
2.645000	-0.012084	-0.732353
2.650000	-0.010812	-0.732353
2.655000	-0.014627	-0.732353
2.660000	-0.010812	-0.731079
2.665000	-0.017170	-0.732353
2.670000	-0.005726	-0.727256
2.675000	-0.010812	-0.728530
2.680000	-0.004455	-0.728530
2.685000	-0.008269	-0.729805
2.690000	-0.008269	-0.733627
2.695000	-0.014627	-0.729805
2.700000	-0.009541	-0.731079
2.705000	-0.008269	-0.725982
2.710000	-0.009541	-0.737449
2.715000	-0.013355	-0.728530
2.720000	-0.013355	-0.738723
2.725000	-0.017170	-0.728530
2.730000	-0.010812	-0.738723
2.735000	-0.009541	-0.733627
2.740000	-0.012084	-0.732353
2.745000	-0.009541	-0.727256
2.750000	-0.014627	-0.728530
2.755000	-0.005726	-0.723434
2.760000	-0.008269	-0.727256
2.765000	-0.006998	-0.720886
2.770000	-0.009541	-0.736175
2.775000	-0.012084	-0.729805
2.780000	-0.012084	-0.728530
2.785000	-0.008269	-0.724708
2.790000	-0.008269	-0.722160
2.795000	-0.006998	-0.725982
2.800000	-0.009541	-0.731079
2.805000	-0.010812	-0.734901
2.810000	-0.012084	-0.728530
2.815000	-0.005726	-0.728530
2.820000	-0.010812	-0.727256
2.825000	-0.009541	-0.729805
2.830000	-0.010812	-0.728530
2.835000	-0.015898	-0.725982
2.840000	-0.015898	-0.723434
2.845000	-0.017170	-0.729805
2.850000	-0.010812	-0.729805
2.855000	-0.009541	-0.731079
2.860000	-0.006998	-0.723434
2.865000	-0.006998	-0.731079
2.870000	-0.004455	-0.729805
2.875000	-0.012084	-0.728530
2.880000	-0.013355	-0.729805
2.885000	-0.017170	-0.728530
2.890000	-0.012084	-0.725982
2.895000	-0.013355	-0.728530
2.900000	-0.010812	-0.725982
2.905000	-0.009541	-0.727256
2.910000	-0.009541	-0.737449
2.915000	-0.014627	-0.728530
2.920000	-0.010812	-0.727256
2.925000	-0.008269	-0.731079
2.930000	-0.009541	-0.733627
2.935000	-0.013355	-0.729805
2.940000	-0.005726	-0.728530
2.945000	-0.013355	-0.724708
2.950000	-0.006998	-0.728530
2.955000	-0.010812	-0.725982
2.960000	-0.010812	-0.720886
2.965000	-0.017170	-0.728530
2.970000	-0.010812	-0.734901
2.975000	-0.014627	-0.729805
2.980000	-0.005726	-0.731079
2.985000	-0.008269	-0.725982
2.990000	-0.005726	-0.733627
2.995000	-0.009541	-0.720886
3.000000	-0.008269	-0.725982
3.005000	-0.006998	-0.725982
3.010000	-0.009541	-0.728530
3.015000	-0.013355	-0.728530
3.020000	-0.009541	-0.731079
3.025000	-0.009541	-0.728530
3.030000	-0.014627	-0.731079
3.035000	-0.010812	-0.728530
3.040000	-0.013355	-0.731079
3.045000	-0.008269	-0.724708
3.050000	-0.013355	-0.728530
3.055000	-0.010812	-0.732353
3.060000	-0.017170	-0.729805
3.065000	-0.005726	-0.728530
3.070000	-0.010812	-0.723434
3.075000	-0.010812	-0.732353
3.080000	-0.019713	-0.729805
3.085000	-0.006998	-0.731079
3.090000	-0.013355	-0.725982
3.095000	-0.004455	-0.731079
3.100000	-0.009541	-0.724708
3.105000	-0.009541	-0.732353
3.110000	-0.010812	-0.727256
3.115000	-0.006998	-0.728530
3.120000	-0.010812	-0.725982
3.125000	-0.014627	-0.732353
3.130000	-0.018442	-0.728530
3.135000	-0.013355	-0.732353
3.140000	-0.006998	-0.727256
3.145000	-0.008269	-0.732353
3.150000	-0.012084	-0.732353
3.155000	-0.018442	-0.727256
3.160000	-0.010812	-0.718338
3.165000	-0.014627	-0.736175
3.170000	-0.004455	-0.729805
3.175000	-0.010812	-0.734901
3.180000	-0.006998	-0.728530
3.185000	-0.012084	-0.725982
3.190000	0.003175	-0.722160
3.195000	-0.015898	-0.720886
3.200000	-0.008269	-0.728530
3.205000	-0.010812	-0.727256
3.210000	-0.012084	-0.734901
3.215000	-0.014627	-0.728530
3.220000	-0.010812	-0.731079
3.225000	-0.010812	-0.727256
3.230000	-0.008269	-0.729805
3.235000	-0.008269	-0.724708
3.240000	-0.009541	-0.728530
3.245000	-0.014627	-0.728530
3.250000	-0.014627	-0.731079
3.255000	-0.009541	-0.724708
3.260000	-0.005726	-0.728530
3.265000	-0.005726	-0.728530
3.270000	-0.013355	-0.736175
3.275000	-0.008269	-0.729805
3.280000	-0.018442	-0.733627
3.285000	-0.010812	-0.727256
3.290000	-0.013355	-0.725982
3.295000	-0.001911	-0.728530
3.300000	-0.005726	-0.733627
3.305000	-0.008269	-0.729805
3.310000	-0.014627	-0.723434
3.315000	-0.014627	-0.731079
3.320000	-0.010812	-0.727256
3.325000	-0.009541	-0.728530
3.330000	-0.008269	-0.732353
3.335000	-0.010812	-0.733627
3.340000	-0.009541	-0.728530
3.345000	-0.014627	-0.725982
3.350000	-0.013355	-0.728530
3.355000	-0.014627	-0.728530
3.360000	-0.006998	-0.732353
3.365000	-0.010812	-0.731079
3.370000	-0.008269	-0.733627
3.375000	-0.013355	-0.733627
3.380000	-0.005726	-0.729805
3.385000	-0.004455	-0.724708
3.390000	-0.009541	-0.737449
3.395000	-0.015898	-0.731079
3.400000	-0.010812	-0.732353
3.405000	-0.014627	-0.728530
3.410000	-0.010812	-0.729805
3.415000	-0.008269	-0.728530
3.420000	-0.012084	-0.723434
3.425000	-0.010812	-0.731079
3.430000	-0.014627	-0.729805
3.435000	-0.013355	-0.728530
3.440000	-0.017170	-0.731079
3.445000	-0.006998	-0.728530
3.450000	-0.009541	-0.727256
3.455000	-0.004455	-0.728530
3.460000	-0.004455	-0.723434
3.465000	-0.004455	-0.731079
3.470000	-0.014627	-0.725982
3.475000	-0.012084	-0.729805
3.480000	-0.015898	-0.725982
3.485000	-0.013355	-0.727256
3.490000	-0.009541	-0.723434
3.495000	-0.005726	-0.729805
3.500000	-0.006998	-0.727256
3.505000	-0.010812	-0.734901
3.510000	-0.010812	-0.728530
3.515000	-0.012084	-0.731079
3.520000	-0.005726	-0.732353
3.525000	-0.015898	-0.727256
3.530000	-0.009541	-0.737449
3.535000	-0.013355	-0.727256
3.540000	-0.009541	-0.734901
3.545000	-0.010812	-0.722160
3.550000	-0.013355	-0.727256
3.555000	-0.005726	-0.727256
3.560000	-0.006998	-0.728530
3.565000	-0.012084	-0.728530
3.570000	-0.014627	-0.733627
3.575000	-0.012084	-0.732353
3.580000	-0.014627	-0.733627
3.585000	-0.010812	-0.733627
3.590000	-0.010812	-0.729805
3.595000	-0.004455	-0.729805
3.600000	-0.006998	-0.728530
3.605000	0.000632	-0.729805
3.610000	-0.010812	-0.725982
3.615000	-0.013355	-0.729805
3.620000	-0.017170	-0.733627
3.625000	-0.012084	-0.729805
3.630000	-0.014627	-0.724708
3.635000	-0.010812	-0.728530
3.640000	-0.008269	-0.722160
3.645000	-0.009541	-0.736175
3.650000	-0.012084	-0.729805
3.655000	-0.000640	-0.734901
3.660000	-0.014627	-0.728530
3.665000	-0.015898	-0.733627
3.670000	-0.006998	-0.728530
3.675000	-0.008269	-0.729805
3.680000	-0.005726	-0.731079
3.685000	-0.013355	-0.729805
3.690000	-0.012084	-0.731079
3.695000	-0.019713	-0.725982
3.700000	-0.013355	-0.727256
3.705000	-0.013355	-0.724708
3.710000	-0.006998	-0.727256
3.715000	-0.009541	-0.731079
3.720000	-0.003183	-0.737449
3.725000	-0.009541	-0.732353
3.730000	-0.010812	-0.734901
3.735000	-0.015898	-0.729805
3.740000	-0.014627	-0.733627
3.745000	-0.015898	-0.731079
3.750000	-0.013355	-0.728530
3.755000	-0.005726	-0.728530
3.760000	-0.006998	-0.733627
3.765000	-0.006998	-0.736175
3.770000	-0.019713	-0.729805
3.775000	-0.008269	-0.727256
3.780000	-0.015898	-0.725982
3.785000	-0.008269	-0.731079
3.790000	-0.009541	-0.728530
3.795000	-0.004455	-0.738723
3.800000	-0.012084	-0.729805
3.805000	-0.012084	-0.728530
3.810000	-0.012084	-0.729805
3.815000	-0.009541	-0.728530
3.820000	-0.010812	-0.728530
3.825000	-0.013355	-0.732353
3.830000	-0.010812	-0.729805
3.835000	-0.009541	-0.728530
3.840000	-0.010812	-0.720886
3.845000	-0.010812	-0.732353
3.850000	-0.014627	-0.727256
3.855000	-0.014627	-0.732353
3.860000	-0.010812	-0.727256
3.865000	-0.010812	-0.732353
3.870000	-0.004455	-0.729805
3.875000	-0.012084	-0.729805
3.880000	-0.012084	-0.728530
3.885000	-0.014627	-0.729805
3.890000	-0.010812	-0.725982
3.895000	-0.014627	-0.729805
3.900000	-0.009541	-0.731079
3.905000	-0.014627	-0.733627
3.910000	-0.006998	-0.732353
3.915000	-0.012084	-0.733627
3.920000	-0.014627	-0.731079
3.925000	-0.010812	-0.723434
3.930000	-0.010812	-0.729805
3.935000	-0.008269	-0.724708
3.940000	-0.006998	-0.733627
3.945000	-0.010812	-0.722160
3.950000	-0.010812	-0.732353
3.955000	-0.010812	-0.719612
3.960000	-0.010812	-0.729805
3.965000	-0.014627	-0.733627
3.970000	-0.014627	-0.738723
3.975000	-0.014627	-0.731079
3.980000	-0.009541	-0.741271
3.985000	-0.005726	-0.728530
3.990000	-0.006998	-0.731079
3.995000	-0.010812	-0.727256
4.000000	-0.015898	-0.728530
4.005000	-0.017170	-0.728530
4.010000	-0.012084	-0.728530
4.015000	-0.010812	-0.731079
4.020000	-0.009541	-0.732353
4.025000	-0.009541	-0.732353
4.030000	-0.009541	-0.734901
4.035000	-0.010812	-0.729805
4.040000	-0.015898	-0.727256
4.045000	-0.012084	-0.723434
4.050000	-0.014627	-0.728530
4.055000	-0.004455	-0.728530
4.060000	-0.008269	-0.729805
4.065000	-0.009541	-0.736175
4.070000	-0.019713	-0.732353
4.075000	-0.009541	-0.731079
4.080000	-0.014627	-0.722160
4.085000	-0.005726	-0.731079
4.090000	-0.013355	-0.728530
4.095000	-0.010812	-0.737449
4.100000	-0.013355	-0.729805
4.105000	-0.008269	-0.728530
4.110000	-0.010812	-0.725982
4.115000	-0.005726	-0.723434
4.120000	-0.009541	-0.724708
4.125000	-0.009541	-0.728530
4.130000	-0.008269	-0.724708
4.135000	-0.009541	-0.728530
4.140000	-0.010812	-0.725982
4.145000	-0.010812	-0.733627
4.150000	-0.013355	-0.731079
4.155000	-0.019713	-0.727256
4.160000	-0.010812	-0.729805
4.165000	-0.014627	-0.728530
4.170000	-0.004455	-0.728530
4.175000	-0.010812	-0.731079
4.180000	-0.004455	-0.729805
4.185000	-0.015898	-0.731079
4.190000	-0.008269	-0.728530
4.195000	-0.015898	-0.725982
4.200000	-0.006998	-0.728530
4.205000	-0.012084	-0.727256
4.210000	-0.013355	-0.731079
4.215000	-0.009541	-0.731079
4.220000	-0.005726	-0.731079
4.225000	-0.005726	-0.731079
4.230000	-0.012084	-0.729805
4.235000	-0.014627	-0.728530
4.240000	-0.014627	-0.729805
4.245000	-0.010812	-0.724708
4.250000	-0.009541	-0.727256
4.255000	-0.006998	-0.727256
4.260000	-0.010812	-0.732353
4.265000	-0.009541	-0.728530
4.270000	-0.013355	-0.729805
4.275000	-0.013355	-0.728530
4.280000	-0.014627	-0.723434
4.285000	-0.008269	-0.725982
4.290000	-0.009541	-0.724708
4.295000	-0.005726	-0.733627
4.300000	-0.013355	-0.733627
4.305000	-0.006998	-0.729805
4.310000	-0.001911	-0.728530
4.315000	-0.006998	-0.729805
4.320000	-0.009541	-0.728530
4.325000	-0.012084	-0.731079
4.330000	-0.012084	-0.724708
4.335000	-0.006998	-0.727256
4.340000	-0.005726	-0.725982
4.345000	-0.010812	-0.733627
4.350000	-0.010812	-0.729805
4.355000	-0.014627	-0.737449
4.360000	-0.013355	-0.733627
4.365000	-0.013355	-0.729805
4.370000	-0.014627	-0.727256
4.375000	-0.014627	-0.731079
4.380000	-0.014627	-0.722160
4.385000	-0.014627	-0.731079
4.390000	-0.010812	-0.729805
4.395000	-0.014627	-0.731079
4.400000	-0.010812	-0.727256
4.405000	-0.013355	-0.728530
4.410000	-0.004455	-0.733627
4.415000	-0.009541	-0.731079
4.420000	-0.005726	-0.727256
4.425000	-0.009541	-0.729805
4.430000	-0.014627	-0.728530
4.435000	-0.014627	-0.728530
4.440000	-0.006998	-0.728530
4.445000	-0.012084	-0.728530
4.450000	-0.005726	-0.728530
4.455000	-0.013355	-0.722160
4.460000	-0.010812	-0.728530
4.465000	-0.012084	-0.728530
4.470000	-0.004455	-0.733627
4.475000	-0.006998	-0.729805
4.480000	-0.004455	-0.732353
4.485000	-0.010812	-0.732353
4.490000	-0.006998	-0.725982
4.495000	-0.017170	-0.724708
4.500000	-0.010812	-0.728530
4.505000	-0.014627	-0.729805
4.510000	-0.008269	-0.729805
4.515000	-0.013355	-0.729805
4.520000	-0.006998	-0.737449
4.525000	-0.014627	-0.728530
4.530000	-0.005726	-0.724708
4.535000	-0.010812	-0.723434
4.540000	-0.008269	-0.728530
4.545000	-0.013355	-0.724708
4.550000	-0.008269	-0.729805
4.555000	-0.013355	-0.728530
4.560000	-0.008269	-0.732353
4.565000	-0.008269	-0.732353
4.570000	-0.006998	-0.731079
4.575000	-0.014627	-0.725982
4.580000	-0.006998	-0.727256
4.585000	-0.012084	-0.720886
4.590000	-0.005726	-0.727256
4.595000	-0.008269	-0.728530
4.600000	-0.009541	-0.731079
4.605000	-0.010812	-0.724708
4.610000	-0.005726	-0.729805
4.615000	-0.012084	-0.724708
4.620000	-0.010812	-0.723434
4.625000	-0.012084	-0.728530
4.630000	-0.013355	-0.736175
4.635000	-0.013355	-0.728530
4.640000	-0.008269	-0.729805
4.645000	-0.006998	-0.723434
4.650000	-0.008269	-0.731079
4.655000	-0.009541	-0.725982
4.660000	-0.014627	-0.737449
4.665000	-0.013355	-0.731079
4.670000	-0.013355	-0.729805
4.675000	-0.014627	-0.728530
4.680000	-0.010812	-0.733627
4.685000	-0.009541	-0.728530
4.690000	-0.014627	-0.736175
4.695000	-0.014627	-0.733627
4.700000	-0.012084	-0.728530
4.705000	-0.010812	-0.733627
4.710000	-0.014627	-0.731079
4.715000	-0.005726	-0.733627
4.720000	-0.013355	-0.724708
4.725000	-0.006998	-0.728530
4.730000	-0.017170	-0.724708
4.735000	-0.008269	-0.728530
4.740000	-0.008269	-0.728530
4.745000	-0.004455	-0.731079
4.750000	-0.009541	-0.725982
4.755000	-0.004455	-0.731079
4.760000	-0.008269	-0.727256
4.765000	-0.009541	-0.729805
4.770000	-0.014627	-0.724708
4.775000	-0.012084	-0.729805
4.780000	-0.017170	-0.731079
4.785000	-0.013355	-0.733627
4.790000	-0.013355	-0.728530
4.795000	-0.008269	-0.728530
4.800000	-0.012084	-0.724708
4.805000	-0.008269	-0.729805
4.810000	-0.006998	-0.723434
4.815000	-0.008269	-0.733627
4.820000	-0.010812	-0.725982
4.825000	-0.009541	-0.731079
4.830000	-0.008269	-0.727256
4.835000	-0.014627	-0.729805
4.840000	-0.014627	-0.723434
4.845000	-0.014627	-0.728530
4.850000	-0.010812	-0.728530
4.855000	-0.009541	-0.734901
4.860000	-0.008269	-0.725982
4.865000	-0.005726	-0.729805
4.870000	-0.009541	-0.723434
4.875000	-0.014627	-0.733627
4.880000	-0.012084	-0.723434
4.885000	-0.013355	-0.727256
4.890000	-0.010812	-0.727256
4.895000	-0.012084	-0.731079
4.900000	-0.010812	-0.724708
4.905000	-0.006998	-0.733627
4.910000	-0.008269	-0.728530
4.915000	-0.014627	-0.729805
4.920000	-0.010812	-0.717064
4.925000	-0.010812	-0.724708
4.930000	-0.008269	-0.724708
4.935000	-0.014627	-0.731079
4.940000	-0.010812	-0.731079
4.945000	-0.012084	-0.731079
4.950000	-0.010812	-0.723434
4.955000	-0.012084	-0.727256
4.960000	-0.010812	-0.729805
4.965000	-0.015898	-0.731079
4.970000	-0.006998	-0.736175
4.975000	-0.013355	-0.728530
4.980000	-0.005726	-0.733627
4.985000	-0.008269	-0.725982
4.990000	-0.008269	-0.729805
4.995000	-0.013355	-0.719612

