LabVIEW Measurement	
Writer_Version	2
Reader_Version	2
Separator	Tab
Decimal_Separator	.
Multi_Headings	Yes
X_Columns	One
Time_Pref	Absolute
Operator	student_2
Date	1903/12/31
Time	19:00:00
***End_of_Header***	
	
Channels	2		
Samples	1000	1000	
Date	2021/03/03	2021/03/03	
Time	15:34:31.864749283352925151	15:34:31.8647701161075967246	
Y_Unit_Label	Volts	Volts	
X_Dimension	Time	Time	
X0	0.0000000000000000E+0	0.0000000000000000E+0	
Delta_X	0.005000	0.005000	
***End_of_Header***			
X_Value	Voltage_0	Voltage_1	Comment
0.000000	-0.010812	1.609314
0.005000	-0.009541	1.600396
0.010000	-0.009541	1.595299
0.015000	-0.009541	1.577463
0.020000	-0.009541	1.577463
0.025000	-0.006998	1.569819
0.030000	-0.004455	1.568545
0.035000	-0.000640	1.563449
0.040000	-0.006998	1.558353
0.045000	-0.003183	1.539242
0.050000	-0.013355	1.532872
0.055000	-0.005726	1.521406
0.060000	-0.006998	1.512487
0.065000	0.001903	1.502295
0.070000	0.003175	1.494651
0.075000	0.006989	1.484459
0.080000	-0.000640	1.471719
0.085000	0.003175	1.460252
0.090000	-0.004455	1.451334
0.095000	0.001903	1.433498
0.100000	-0.004455	1.425853
0.105000	0.005718	1.410565
0.110000	0.008261	1.400373
0.115000	0.013347	1.386359
0.120000	0.006989	1.374892
0.125000	0.008261	1.364700
0.130000	0.000632	1.348138
0.135000	0.005718	1.336671
0.140000	0.009533	1.327753
0.145000	0.015890	1.311191
0.150000	0.015890	1.295902
0.155000	0.013347	1.278066
0.160000	0.017162	1.271696
0.165000	0.017162	1.246215
0.170000	0.018433	1.232201
0.175000	0.017162	1.209268
0.180000	0.017162	1.191432
0.185000	0.017162	1.172322
0.190000	0.022248	1.163403
0.195000	0.024791	1.141745
0.200000	0.029877	1.126457
0.205000	0.028606	1.107346
0.210000	0.029877	1.085688
0.215000	0.026063	1.060207
0.220000	0.031149	1.036000
0.225000	0.036235	1.016890
0.230000	0.041321	0.993957
0.235000	0.040050	0.968477
0.240000	0.043865	0.953189
0.245000	0.042593	0.935352
0.250000	0.041321	0.922612
0.255000	0.043865	0.892035
0.260000	0.046408	0.867829
0.265000	0.041321	0.848718
0.270000	0.045136	0.827060
0.275000	0.047679	0.807949
0.280000	0.059123	0.785017
0.285000	0.052765	0.763358
0.290000	0.052765	0.740426
0.295000	0.055308	0.721315
0.300000	0.064209	0.697109
0.305000	0.061666	0.679272
0.310000	0.069296	0.648695
0.315000	0.062938	0.629585
0.320000	0.060395	0.604104
0.325000	0.059123	0.586268
0.330000	0.068024	0.562061
0.335000	0.066752	0.544225
0.340000	0.075653	0.508552
0.345000	0.076925	0.489442
0.350000	0.078196	0.461413
0.355000	0.078196	0.441029
0.360000	0.084554	0.410452
0.365000	0.080740	0.397712
0.370000	0.079468	0.362039
0.375000	0.076925	0.340380
0.380000	0.079468	0.311078
0.385000	0.085826	0.289419
0.390000	0.088369	0.260116
0.395000	0.090912	0.238458
0.400000	0.095998	0.209155
0.405000	0.095998	0.191319
0.410000	0.092184	0.156920
0.415000	0.095998	0.131439
0.420000	0.095998	0.102137
0.425000	0.099813	0.070286
0.430000	0.097270	0.047354
0.435000	0.102356	0.019325
0.440000	0.101084	0.005311
0.445000	0.104899	-0.030362
0.450000	0.101084	-0.055843
0.455000	0.102356	-0.087694
0.460000	0.097270	-0.111900
0.465000	0.102356	-0.137381
0.470000	0.101084	-0.166683
0.475000	0.108714	-0.190890
0.480000	0.107442	-0.211274
0.485000	0.113800	-0.239303
0.490000	0.102356	-0.258414
0.495000	0.104899	-0.292812
0.500000	0.099813	-0.318293
0.505000	0.102356	-0.341226
0.510000	0.106171	-0.361610
0.515000	0.112528	-0.393461
0.520000	0.107442	-0.408749
0.525000	0.104899	-0.438052
0.530000	0.104899	-0.453340
0.535000	0.106171	-0.477547
0.540000	0.104899	-0.496657
0.545000	0.104899	-0.524686
0.550000	0.104899	-0.547618
0.555000	0.106171	-0.574373
0.560000	0.099813	-0.592209
0.565000	0.101084	-0.621512
0.570000	0.097270	-0.639348
0.575000	0.090912	-0.667377
0.580000	0.090912	-0.678843
0.585000	0.089640	-0.706872
0.590000	0.095998	-0.722160
0.595000	0.093455	-0.746367
0.600000	0.095998	-0.768025
0.605000	0.087097	-0.782040
0.610000	0.088369	-0.808794
0.615000	0.076925	-0.830453
0.620000	0.075653	-0.855933
0.625000	0.070567	-0.873770
0.630000	0.075653	-0.892880
0.635000	0.075653	-0.917087
0.640000	0.075653	-0.937471
0.645000	0.065481	-0.952760
0.650000	0.068024	-0.969322
0.655000	0.076925	-0.978240
0.660000	0.065481	-0.998625
0.665000	0.057852	-1.019009
0.670000	0.052765	-1.034298
0.675000	0.052765	-1.048312
0.680000	0.050222	-1.061052
0.685000	0.054037	-1.077615
0.690000	0.045136	-1.091629
0.695000	0.041321	-1.105643
0.700000	0.037507	-1.113287
0.705000	0.041321	-1.129850
0.710000	0.033692	-1.145138
0.715000	0.033692	-1.154056
0.720000	0.027334	-1.161701
0.725000	0.029877	-1.168071
0.730000	0.026063	-1.174441
0.735000	0.024791	-1.187181
0.740000	0.019705	-1.198647
0.745000	0.015890	-1.205018
0.750000	0.013347	-1.212662
0.755000	0.012076	-1.213936
0.760000	0.014619	-1.217758
0.765000	0.013347	-1.226676
0.770000	0.003175	-1.229224
0.775000	-0.000640	-1.238142
0.780000	-0.000640	-1.238142
0.785000	-0.006998	-1.241964
0.790000	-0.005726	-1.243238
0.795000	-0.006998	-1.240690
0.800000	-0.004455	-1.243238
0.805000	-0.010812	-1.243238
0.810000	-0.010812	-1.248335
0.815000	-0.017170	-1.247061
0.820000	-0.013355	-1.245786
0.825000	-0.023528	-1.247061
0.830000	-0.023528	-1.253431
0.835000	-0.028614	-1.249609
0.840000	-0.019713	-1.248335
0.845000	-0.023528	-1.245786
0.850000	-0.020985	-1.252157
0.855000	-0.026071	-1.239416
0.860000	-0.029886	-1.244512
0.865000	-0.029886	-1.234320
0.870000	-0.028614	-1.234320
0.875000	-0.033700	-1.238142
0.880000	-0.036243	-1.238142
0.885000	-0.034972	-1.227950
0.890000	-0.036243	-1.230498
0.895000	-0.037515	-1.220306
0.900000	-0.041330	-1.220306
0.905000	-0.038786	-1.220306
0.910000	-0.045144	-1.217758
0.915000	-0.038786	-1.207566
0.920000	-0.045144	-1.202469
0.925000	-0.034972	-1.194825
0.930000	-0.040058	-1.185907
0.935000	-0.037515	-1.184633
0.940000	-0.047687	-1.176989
0.945000	-0.045144	-1.171893
0.950000	-0.052774	-1.169345
0.955000	-0.046416	-1.156604
0.960000	-0.050230	-1.147686
0.965000	-0.047687	-1.147686
0.970000	-0.047687	-1.133672
0.975000	-0.047687	-1.129850
0.980000	-0.051502	-1.115835
0.985000	-0.048959	-1.106917
0.990000	-0.051502	-1.094177
0.995000	-0.055317	-1.092903
1.000000	-0.054045	-1.083985
1.005000	-0.052774	-1.076341
1.010000	-0.052774	-1.063600
1.015000	-0.054045	-1.053408
1.020000	-0.054045	-1.044490
1.025000	-0.060403	-1.039394
1.030000	-0.056588	-1.027927
1.035000	-0.060403	-1.017735
1.040000	-0.051502	-1.007543
1.045000	-0.054045	-0.992255
1.050000	-0.047687	-0.992255
1.055000	-0.056588	-0.976966
1.060000	-0.056588	-0.968048
1.065000	-0.061674	-0.960404
1.070000	-0.061674	-0.954034
1.075000	-0.060403	-0.945116
1.080000	-0.057860	-0.937471
1.085000	-0.061674	-0.932375
1.090000	-0.052774	-0.918361
1.095000	-0.057860	-0.903073
1.100000	-0.054045	-0.897976
1.105000	-0.056588	-0.894154
1.110000	-0.056588	-0.883962
1.115000	-0.056588	-0.877592
1.120000	-0.057860	-0.876318
1.125000	-0.056588	-0.859756
1.130000	-0.059131	-0.853385
1.135000	-0.057860	-0.835549
1.140000	-0.054045	-0.833001
1.145000	-0.055317	-0.818987
1.150000	-0.054045	-0.811342
1.155000	-0.050230	-0.810068
1.160000	-0.046416	-0.802424
1.165000	-0.051502	-0.793506
1.170000	-0.051502	-0.787136
1.175000	-0.050230	-0.774396
1.180000	-0.047687	-0.770573
1.185000	-0.047687	-0.750189
1.190000	-0.046416	-0.745093
1.195000	-0.045144	-0.737449
1.200000	-0.045144	-0.728530
1.205000	-0.043873	-0.722160
1.210000	-0.037515	-0.713242
1.215000	-0.042601	-0.700502
1.220000	-0.041330	-0.700502
1.225000	-0.042601	-0.681391
1.230000	-0.038786	-0.678843
1.235000	-0.042601	-0.668651
1.240000	-0.036243	-0.663555
1.245000	-0.034972	-0.657185
1.250000	-0.033700	-0.649541
1.255000	-0.036243	-0.645719
1.260000	-0.037515	-0.632978
1.265000	-0.040058	-0.629156
1.270000	-0.040058	-0.622786
1.275000	-0.037515	-0.617690
1.280000	-0.034972	-0.613868
1.285000	-0.036243	-0.607498
1.290000	-0.029886	-0.598579
1.295000	-0.033700	-0.594757
1.300000	-0.031157	-0.587113
1.305000	-0.032429	-0.585839
1.310000	-0.031157	-0.578195
1.315000	-0.033700	-0.583291
1.320000	-0.026071	-0.576921
1.325000	-0.027342	-0.580743
1.330000	-0.024799	-0.570551
1.335000	-0.022256	-0.570551
1.340000	-0.026071	-0.555262
1.345000	-0.028614	-0.559085
1.350000	-0.023528	-0.553988
1.355000	-0.022256	-0.550166
1.360000	-0.015898	-0.546344
1.365000	-0.022256	-0.552714
1.370000	-0.023528	-0.551440
1.375000	-0.014627	-0.542522
1.380000	-0.013355	-0.546344
1.385000	-0.015898	-0.542522
1.390000	-0.017170	-0.539974
1.395000	-0.012084	-0.534878
1.400000	-0.009541	-0.542522
1.405000	-0.017170	-0.542522
1.410000	-0.010812	-0.538700
1.415000	-0.012084	-0.534878
1.420000	-0.008269	-0.542522
1.425000	-0.017170	-0.533604
1.430000	-0.010812	-0.532330
1.435000	-0.006998	-0.525960
1.440000	-0.000640	-0.537426
1.445000	-0.005726	-0.536152
1.450000	-0.004455	-0.532330
1.455000	-0.004455	-0.533604
1.460000	0.000632	-0.534878
1.465000	-0.008269	-0.525960
1.470000	-0.008269	-0.537426
1.475000	-0.008269	-0.531056
1.480000	-0.001911	-0.536152
1.485000	-0.005726	-0.534878
1.490000	-0.001911	-0.538700
1.495000	0.001903	-0.539974
1.500000	0.005718	-0.541248
1.505000	0.000632	-0.541248
1.510000	-0.003183	-0.548892
1.515000	-0.004455	-0.546344
1.520000	0.000632	-0.546344
1.525000	0.005718	-0.546344
1.530000	0.003175	-0.546344
1.535000	0.005718	-0.556537
1.540000	-0.000640	-0.552714
1.545000	-0.000640	-0.561633
1.550000	-0.004455	-0.561633
1.555000	0.005718	-0.570551
1.560000	0.005718	-0.573099
1.565000	0.006989	-0.570551
1.570000	0.003175	-0.576921
1.575000	0.009533	-0.582017
1.580000	0.003175	-0.578195
1.585000	0.006989	-0.582017
1.590000	0.001903	-0.587113
1.595000	0.005718	-0.598579
1.600000	-0.003183	-0.597305
1.605000	0.005718	-0.602402
1.610000	0.005718	-0.602402
1.615000	0.008261	-0.612594
1.620000	0.006989	-0.613868
1.625000	0.010804	-0.612594
1.630000	0.006989	-0.620238
1.635000	0.006989	-0.617690
1.640000	0.005718	-0.616416
1.645000	0.005718	-0.627882
1.650000	-0.000640	-0.634252
1.655000	0.006989	-0.629156
1.660000	0.003175	-0.634252
1.665000	0.004446	-0.639348
1.670000	0.005718	-0.641896
1.675000	0.010804	-0.645719
1.680000	0.009533	-0.645719
1.685000	0.008261	-0.652089
1.690000	0.006989	-0.655911
1.695000	0.004446	-0.657185
1.700000	0.004446	-0.650815
1.705000	0.000632	-0.661007
1.710000	0.004446	-0.655911
1.715000	0.005718	-0.664829
1.720000	0.003175	-0.672473
1.725000	0.003175	-0.676295
1.730000	0.000632	-0.682665
1.735000	0.005718	-0.683939
1.740000	0.009533	-0.680117
1.745000	0.003175	-0.682665
1.750000	0.003175	-0.694132
1.755000	0.003175	-0.700502
1.760000	0.005718	-0.699228
1.765000	0.004446	-0.695406
1.770000	0.003175	-0.706872
1.775000	0.001903	-0.703050
1.780000	0.005718	-0.708146
1.785000	0.005718	-0.710694
1.790000	0.000632	-0.718338
1.795000	-0.003183	-0.722160
1.800000	-0.005726	-0.729805
1.805000	0.001903	-0.724708
1.810000	0.003175	-0.731079
1.815000	0.008261	-0.733627
1.820000	0.000632	-0.737449
1.825000	0.006989	-0.733627
1.830000	0.003175	-0.738723
1.835000	-0.003183	-0.747641
1.840000	-0.001911	-0.751463
1.845000	0.004446	-0.748915
1.850000	-0.001911	-0.756559
1.855000	-0.004455	-0.757833
1.860000	-0.004455	-0.754011
1.865000	0.000632	-0.754011
1.870000	0.001903	-0.755285
1.875000	0.000632	-0.766751
1.880000	-0.006998	-0.766751
1.885000	-0.000640	-0.771847
1.890000	-0.001911	-0.760381
1.895000	0.000632	-0.769299
1.900000	-0.004455	-0.768025
1.905000	-0.009541	-0.768025
1.910000	-0.009541	-0.770573
1.915000	-0.005726	-0.774396
1.920000	-0.003183	-0.770573
1.925000	-0.004455	-0.779492
1.930000	-0.004455	-0.779492
1.935000	-0.009541	-0.783314
1.940000	-0.001911	-0.774396
1.945000	-0.006998	-0.780766
1.950000	-0.001911	-0.779492
1.955000	-0.006998	-0.782040
1.960000	-0.009541	-0.785862
1.965000	-0.015898	-0.780766
1.970000	-0.004455	-0.782040
1.975000	-0.009541	-0.788410
1.980000	-0.006998	-0.789684
1.985000	-0.009541	-0.785862
1.990000	-0.006998	-0.787136
1.995000	-0.010812	-0.792232
2.000000	-0.012084	-0.789684
2.005000	-0.005726	-0.787136
2.010000	-0.012084	-0.792232
2.015000	-0.008269	-0.788410
2.020000	-0.008269	-0.785862
2.025000	-0.010812	-0.789684
2.030000	-0.010812	-0.785862
2.035000	-0.006998	-0.788410
2.040000	-0.015898	-0.796054
2.045000	-0.010812	-0.788410
2.050000	-0.014627	-0.790958
2.055000	-0.013355	-0.793506
2.060000	-0.013355	-0.785862
2.065000	-0.006998	-0.793506
2.070000	-0.018442	-0.793506
2.075000	-0.013355	-0.796054
2.080000	-0.013355	-0.793506
2.085000	-0.019713	-0.779492
2.090000	-0.008269	-0.793506
2.095000	-0.013355	-0.787136
2.100000	-0.010812	-0.788410
2.105000	-0.013355	-0.787136
2.110000	-0.019713	-0.788410
2.115000	-0.013355	-0.789684
2.120000	-0.014627	-0.780766
2.125000	-0.014627	-0.783314
2.130000	-0.015898	-0.782040
2.135000	-0.015898	-0.788410
2.140000	-0.010812	-0.780766
2.145000	-0.013355	-0.778218
2.150000	-0.014627	-0.776944
2.155000	-0.015898	-0.779492
2.160000	-0.017170	-0.774396
2.165000	-0.018442	-0.774396
2.170000	-0.018442	-0.774396
2.175000	-0.005726	-0.778218
2.180000	-0.015898	-0.774396
2.185000	-0.010812	-0.770573
2.190000	-0.018442	-0.770573
2.195000	-0.019713	-0.768025
2.200000	-0.015898	-0.769299
2.205000	-0.013355	-0.769299
2.210000	-0.009541	-0.764203
2.215000	-0.015898	-0.770573
2.220000	-0.014627	-0.764203
2.225000	-0.015898	-0.768025
2.230000	-0.015898	-0.756559
2.235000	-0.015898	-0.759107
2.240000	-0.018442	-0.768025
2.245000	-0.017170	-0.764203
2.250000	-0.014627	-0.764203
2.255000	-0.010812	-0.755285
2.260000	-0.008269	-0.760381
2.265000	-0.017170	-0.755285
2.270000	-0.017170	-0.759107
2.275000	-0.019713	-0.756559
2.280000	-0.017170	-0.754011
2.285000	-0.019713	-0.752737
2.290000	-0.014627	-0.759107
2.295000	-0.022256	-0.751463
2.300000	-0.012084	-0.754011
2.305000	-0.012084	-0.748915
2.310000	-0.013355	-0.747641
2.315000	-0.018442	-0.747641
2.320000	-0.020985	-0.746367
2.325000	-0.017170	-0.741271
2.330000	-0.015898	-0.738723
2.335000	-0.014627	-0.738723
2.340000	-0.014627	-0.738723
2.345000	-0.014627	-0.738723
2.350000	-0.020985	-0.742545
2.355000	-0.015898	-0.738723
2.360000	-0.008269	-0.736175
2.365000	-0.012084	-0.741271
2.370000	-0.013355	-0.736175
2.375000	-0.010812	-0.741271
2.380000	-0.014627	-0.733627
2.385000	-0.013355	-0.731079
2.390000	-0.020985	-0.729805
2.395000	-0.015898	-0.727256
2.400000	-0.019713	-0.724708
2.405000	-0.012084	-0.727256
2.410000	-0.012084	-0.722160
2.415000	-0.009541	-0.733627
2.420000	-0.012084	-0.729805
2.425000	-0.020985	-0.728530
2.430000	-0.013355	-0.725982
2.435000	-0.014627	-0.720886
2.440000	-0.009541	-0.722160
2.445000	-0.013355	-0.719612
2.450000	-0.012084	-0.729805
2.455000	-0.013355	-0.723434
2.460000	-0.009541	-0.722160
2.465000	-0.019713	-0.717064
2.470000	-0.014627	-0.719612
2.475000	-0.017170	-0.714516
2.480000	-0.013355	-0.715790
2.485000	-0.014627	-0.715790
2.490000	-0.009541	-0.728530
2.495000	-0.013355	-0.713242
2.500000	-0.005726	-0.714516
2.505000	-0.009541	-0.703050
2.510000	-0.013355	-0.717064
2.515000	-0.013355	-0.719612
2.520000	-0.013355	-0.717064
2.525000	-0.014627	-0.714516
2.530000	-0.017170	-0.718338
2.535000	-0.010812	-0.708146
2.540000	-0.012084	-0.717064
2.545000	-0.009541	-0.715790
2.550000	-0.014627	-0.711968
2.555000	-0.014627	-0.717064
2.560000	-0.014627	-0.718338
2.565000	-0.010812	-0.717064
2.570000	-0.015898	-0.711968
2.575000	-0.004455	-0.715790
2.580000	-0.004455	-0.709420
2.585000	-0.005726	-0.718338
2.590000	-0.010812	-0.710694
2.595000	-0.013355	-0.709420
2.600000	-0.013355	-0.704324
2.605000	-0.006998	-0.711968
2.610000	-0.009541	-0.715790
2.615000	-0.010812	-0.713242
2.620000	-0.010812	-0.710694
2.625000	-0.009541	-0.710694
2.630000	-0.010812	-0.713242
2.635000	-0.013355	-0.708146
2.640000	-0.010812	-0.718338
2.645000	-0.010812	-0.706872
2.650000	-0.005726	-0.711968
2.655000	-0.012084	-0.711968
2.660000	-0.009541	-0.713242
2.665000	-0.010812	-0.705598
2.670000	-0.010812	-0.710694
2.675000	-0.013355	-0.709420
2.680000	-0.010812	-0.714516
2.685000	-0.014627	-0.705598
2.690000	-0.008269	-0.713242
2.695000	-0.006998	-0.704324
2.700000	-0.001911	-0.715790
2.705000	-0.009541	-0.718338
2.710000	-0.013355	-0.714516
2.715000	-0.010812	-0.709420
2.720000	-0.010812	-0.715790
2.725000	-0.008269	-0.711968
2.730000	-0.009541	-0.720886
2.735000	-0.009541	-0.720886
2.740000	-0.014627	-0.718338
2.745000	-0.009541	-0.717064
2.750000	-0.013355	-0.713242
2.755000	-0.010812	-0.713242
2.760000	-0.010812	-0.713242
2.765000	-0.004455	-0.720886
2.770000	-0.009541	-0.720886
2.775000	-0.003183	-0.719612
2.780000	-0.008269	-0.722160
2.785000	-0.009541	-0.723434
2.790000	-0.013355	-0.715790
2.795000	-0.010812	-0.724708
2.800000	-0.013355	-0.713242
2.805000	-0.008269	-0.720886
2.810000	-0.009541	-0.717064
2.815000	-0.009541	-0.724708
2.820000	-0.010812	-0.724708
2.825000	-0.014627	-0.723434
2.830000	-0.014627	-0.718338
2.835000	-0.006998	-0.719612
2.840000	-0.005726	-0.720886
2.845000	-0.010812	-0.722160
2.850000	-0.014627	-0.720886
2.855000	-0.010812	-0.718338
2.860000	-0.009541	-0.713242
2.865000	-0.006998	-0.717064
2.870000	-0.006998	-0.720886
2.875000	-0.012084	-0.715790
2.880000	-0.009541	-0.724708
2.885000	-0.014627	-0.722160
2.890000	-0.006998	-0.724708
2.895000	-0.014627	-0.717064
2.900000	-0.006998	-0.722160
2.905000	-0.010812	-0.719612
2.910000	-0.010812	-0.723434
2.915000	-0.017170	-0.714516
2.920000	-0.013355	-0.725982
2.925000	-0.012084	-0.718338
2.930000	-0.010812	-0.722160
2.935000	-0.014627	-0.720886
2.940000	-0.005726	-0.719612
2.945000	-0.006998	-0.717064
2.950000	-0.003183	-0.722160
2.955000	-0.008269	-0.723434
2.960000	-0.008269	-0.728530
2.965000	-0.008269	-0.719612
2.970000	-0.012084	-0.723434
2.975000	-0.009541	-0.723434
2.980000	-0.009541	-0.729805
2.985000	-0.012084	-0.724708
2.990000	-0.015898	-0.727256
2.995000	-0.013355	-0.729805
3.000000	-0.018442	-0.727256
3.005000	-0.013355	-0.729805
3.010000	-0.014627	-0.728530
3.015000	-0.005726	-0.727256
3.020000	-0.010812	-0.727256
3.025000	-0.005726	-0.718338
3.030000	-0.010812	-0.722160
3.035000	-0.004455	-0.724708
3.040000	-0.013355	-0.718338
3.045000	-0.005726	-0.720886
3.050000	-0.012084	-0.725982
3.055000	-0.008269	-0.727256
3.060000	-0.008269	-0.723434
3.065000	-0.009541	-0.728530
3.070000	-0.012084	-0.731079
3.075000	-0.012084	-0.727256
3.080000	-0.010812	-0.723434
3.085000	-0.014627	-0.727256
3.090000	-0.005726	-0.720886
3.095000	-0.010812	-0.724708
3.100000	-0.005726	-0.725982
3.105000	-0.009541	-0.725982
3.110000	-0.013355	-0.722160
3.115000	-0.017170	-0.719612
3.120000	-0.012084	-0.731079
3.125000	-0.017170	-0.724708
3.130000	-0.014627	-0.729805
3.135000	-0.018442	-0.724708
3.140000	-0.005726	-0.725982
3.145000	-0.010812	-0.723434
3.150000	-0.008269	-0.724708
3.155000	-0.008269	-0.725982
3.160000	-0.010812	-0.728530
3.165000	-0.010812	-0.728530
3.170000	-0.012084	-0.723434
3.175000	-0.006998	-0.728530
3.180000	-0.013355	-0.727256
3.185000	-0.006998	-0.724708
3.190000	-0.014627	-0.719612
3.195000	-0.010812	-0.723434
3.200000	-0.013355	-0.725982
3.205000	-0.009541	-0.724708
3.210000	-0.017170	-0.728530
3.215000	-0.012084	-0.733627
3.220000	-0.006998	-0.725982
3.225000	-0.004455	-0.719612
3.230000	-0.006998	-0.723434
3.235000	-0.005726	-0.723434
3.240000	-0.010812	-0.715790
3.245000	-0.010812	-0.728530
3.250000	-0.014627	-0.725982
3.255000	-0.012084	-0.724708
3.260000	-0.013355	-0.727256
3.265000	-0.012084	-0.728530
3.270000	-0.013355	-0.720886
3.275000	-0.017170	-0.720886
3.280000	-0.010812	-0.723434
3.285000	-0.014627	-0.724708
3.290000	-0.006998	-0.720886
3.295000	-0.006998	-0.724708
3.300000	-0.004455	-0.724708
3.305000	-0.012084	-0.724708
3.310000	-0.010812	-0.719612
3.315000	-0.010812	-0.722160
3.320000	-0.006998	-0.724708
3.325000	-0.006998	-0.727256
3.330000	-0.006998	-0.723434
3.335000	-0.006998	-0.728530
3.340000	-0.000640	-0.724708
3.345000	-0.009541	-0.725982
3.350000	-0.009541	-0.719612
3.355000	-0.009541	-0.723434
3.360000	-0.014627	-0.727256
3.365000	-0.017170	-0.728530
3.370000	-0.010812	-0.717064
3.375000	-0.010812	-0.727256
3.380000	-0.009541	-0.724708
3.385000	-0.004455	-0.729805
3.390000	-0.006998	-0.722160
3.395000	-0.009541	-0.723434
3.400000	-0.009541	-0.720886
3.405000	-0.009541	-0.727256
3.410000	-0.009541	-0.728530
3.415000	-0.000640	-0.729805
3.420000	-0.010812	-0.723434
3.425000	-0.009541	-0.725982
3.430000	-0.010812	-0.728530
3.435000	-0.017170	-0.723434
3.440000	-0.008269	-0.727256
3.445000	-0.010812	-0.728530
3.450000	-0.009541	-0.732353
3.455000	-0.009541	-0.729805
3.460000	-0.008269	-0.728530
3.465000	-0.013355	-0.724708
3.470000	-0.010812	-0.720886
3.475000	-0.013355	-0.724708
3.480000	-0.014627	-0.723434
3.485000	-0.019713	-0.727256
3.490000	-0.006998	-0.725982
3.495000	-0.009541	-0.720886
3.500000	-0.004455	-0.728530
3.505000	-0.008269	-0.725982
3.510000	-0.013355	-0.731079
3.515000	-0.009541	-0.718338
3.520000	-0.008269	-0.724708
3.525000	-0.014627	-0.731079
3.530000	-0.012084	-0.723434
3.535000	-0.010812	-0.724708
3.540000	0.004446	-0.729805
3.545000	-0.012084	-0.727256
3.550000	-0.005726	-0.727256
3.555000	-0.006998	-0.723434
3.560000	-0.006998	-0.728530
3.565000	-0.013355	-0.722160
3.570000	-0.014627	-0.725982
3.575000	-0.012084	-0.723434
3.580000	-0.009541	-0.723434
3.585000	-0.006998	-0.719612
3.590000	-0.009541	-0.724708
3.595000	-0.014627	-0.723434
3.600000	-0.010812	-0.733627
3.605000	-0.010812	-0.728530
3.610000	-0.001911	-0.727256
3.615000	-0.010812	-0.728530
3.620000	-0.008269	-0.724708
3.625000	-0.013355	-0.724708
3.630000	-0.012084	-0.728530
3.635000	-0.010812	-0.723434
3.640000	-0.012084	-0.725982
3.645000	-0.010812	-0.720886
3.650000	-0.013355	-0.729805
3.655000	-0.014627	-0.727256
3.660000	-0.014627	-0.724708
3.665000	-0.005726	-0.722160
3.670000	-0.008269	-0.719612
3.675000	-0.005726	-0.731079
3.680000	-0.010812	-0.723434
3.685000	-0.009541	-0.728530
3.690000	-0.012084	-0.731079
3.695000	-0.010812	-0.728530
3.700000	-0.013355	-0.731079
3.705000	-0.014627	-0.727256
3.710000	-0.014627	-0.720886
3.715000	-0.008269	-0.725982
3.720000	-0.009541	-0.719612
3.725000	-0.010812	-0.724708
3.730000	-0.010812	-0.719612
3.735000	-0.009541	-0.733627
3.740000	-0.010812	-0.724708
3.745000	-0.013355	-0.722160
3.750000	-0.013355	-0.720886
3.755000	-0.010812	-0.720886
3.760000	-0.014627	-0.720886
3.765000	-0.008269	-0.728530
3.770000	-0.009541	-0.724708
3.775000	-0.005726	-0.727256
3.780000	0.005718	-0.720886
3.785000	-0.004455	-0.725982
3.790000	-0.010812	-0.723434
3.795000	-0.008269	-0.723434
3.800000	-0.015898	-0.718338
3.805000	-0.014627	-0.720886
3.810000	-0.009541	-0.719612
3.815000	-0.006998	-0.731079
3.820000	-0.006998	-0.724708
3.825000	-0.009541	-0.729805
3.830000	-0.012084	-0.727256
3.835000	-0.009541	-0.728530
3.840000	-0.015898	-0.724708
3.845000	-0.012084	-0.724708
3.850000	-0.014627	-0.720886
3.855000	-0.010812	-0.720886
3.860000	-0.006998	-0.722160
3.865000	-0.010812	-0.729805
3.870000	-0.010812	-0.722160
3.875000	-0.013355	-0.727256
3.880000	-0.010812	-0.719612
3.885000	-0.013355	-0.723434
3.890000	-0.006998	-0.722160
3.895000	-0.008269	-0.720886
3.900000	-0.006998	-0.725982
3.905000	-0.014627	-0.724708
3.910000	-0.013355	-0.720886
3.915000	-0.004455	-0.723434
3.920000	-0.012084	-0.717064
3.925000	-0.013355	-0.729805
3.930000	-0.009541	-0.719612
3.935000	-0.010812	-0.725982
3.940000	-0.008269	-0.728530
3.945000	-0.010812	-0.724708
3.950000	-0.009541	-0.720886
3.955000	-0.015898	-0.731079
3.960000	-0.014627	-0.731079
3.965000	-0.018442	-0.727256
3.970000	-0.014627	-0.727256
3.975000	-0.014627	-0.725982
3.980000	-0.014627	-0.723434
3.985000	-0.013355	-0.727256
3.990000	-0.014627	-0.727256
3.995000	-0.015898	-0.728530
4.000000	-0.012084	-0.727256
4.005000	-0.010812	-0.724708
4.010000	-0.010812	-0.728530
4.015000	-0.008269	-0.720886
4.020000	-0.010812	-0.725982
4.025000	-0.005726	-0.720886
4.030000	-0.010812	-0.725982
4.035000	-0.010812	-0.722160
4.040000	-0.015898	-0.731079
4.045000	-0.014627	-0.725982
4.050000	-0.017170	-0.729805
4.055000	-0.010812	-0.732353
4.060000	-0.006998	-0.727256
4.065000	-0.004455	-0.727256
4.070000	-0.004455	-0.727256
4.075000	-0.009541	-0.724708
4.080000	-0.010812	-0.731079
4.085000	-0.013355	-0.728530
4.090000	-0.014627	-0.724708
4.095000	-0.012084	-0.731079
4.100000	-0.013355	-0.724708
4.105000	-0.014627	-0.728530
4.110000	-0.014627	-0.719612
4.115000	-0.017170	-0.727256
4.120000	-0.013355	-0.727256
4.125000	-0.013355	-0.731079
4.130000	-0.014627	-0.732353
4.135000	-0.015898	-0.732353
4.140000	-0.010812	-0.724708
4.145000	-0.012084	-0.724708
4.150000	-0.008269	-0.720886
4.155000	0.000632	-0.723434
4.160000	-0.010812	-0.725982
4.165000	-0.013355	-0.725982
4.170000	-0.008269	-0.723434
4.175000	-0.013355	-0.723434
4.180000	-0.012084	-0.722160
4.185000	-0.010812	-0.724708
4.190000	-0.008269	-0.724708
4.195000	-0.012084	-0.723434
4.200000	-0.009541	-0.720886
4.205000	-0.008269	-0.720886
4.210000	-0.005726	-0.724708
4.215000	-0.013355	-0.719612
4.220000	-0.005726	-0.724708
4.225000	-0.005726	-0.720886
4.230000	-0.006998	-0.725982
4.235000	-0.013355	-0.723434
4.240000	-0.009541	-0.731079
4.245000	-0.010812	-0.728530
4.250000	-0.010812	-0.733627
4.255000	-0.012084	-0.725982
4.260000	-0.012084	-0.724708
4.265000	-0.009541	-0.719612
4.270000	-0.010812	-0.720886
4.275000	-0.010812	-0.719612
4.280000	-0.010812	-0.720886
4.285000	-0.012084	-0.719612
4.290000	-0.014627	-0.723434
4.295000	-0.008269	-0.723434
4.300000	-0.012084	-0.722160
4.305000	-0.009541	-0.720886
4.310000	-0.010812	-0.719612
4.315000	-0.008269	-0.718338
4.320000	-0.012084	-0.720886
4.325000	-0.009541	-0.731079
4.330000	-0.013355	-0.727256
4.335000	-0.014627	-0.731079
4.340000	-0.010812	-0.719612
4.345000	-0.009541	-0.723434
4.350000	-0.006998	-0.714516
4.355000	-0.012084	-0.728530
4.360000	-0.012084	-0.722160
4.365000	-0.018442	-0.727256
4.370000	-0.013355	-0.728530
4.375000	-0.014627	-0.732353
4.380000	-0.008269	-0.724708
4.385000	-0.010812	-0.724708
4.390000	-0.004455	-0.723434
4.395000	-0.009541	-0.723434
4.400000	-0.006998	-0.723434
4.405000	-0.010812	-0.725982
4.410000	-0.012084	-0.731079
4.415000	-0.015898	-0.727256
4.420000	-0.010812	-0.724708
4.425000	-0.012084	-0.719612
4.430000	-0.008269	-0.729805
4.435000	-0.012084	-0.720886
4.440000	-0.012084	-0.724708
4.445000	-0.010812	-0.728530
4.450000	-0.018442	-0.733627
4.455000	-0.017170	-0.732353
4.460000	-0.015898	-0.723434
4.465000	-0.010812	-0.724708
4.470000	-0.010812	-0.724708
4.475000	-0.010812	-0.724708
4.480000	-0.009541	-0.723434
4.485000	-0.012084	-0.724708
4.490000	-0.010812	-0.723434
4.495000	-0.010812	-0.727256
4.500000	-0.006998	-0.719612
4.505000	-0.010812	-0.722160
4.510000	-0.008269	-0.718338
4.515000	-0.014627	-0.723434
4.520000	-0.010812	-0.724708
4.525000	-0.014627	-0.723434
4.530000	-0.012084	-0.720886
4.535000	-0.014627	-0.725982
4.540000	-0.006998	-0.724708
4.545000	-0.009541	-0.723434
4.550000	-0.008269	-0.722160
4.555000	-0.009541	-0.724708
4.560000	-0.013355	-0.723434
4.565000	-0.010812	-0.720886
4.570000	-0.012084	-0.723434
4.575000	-0.006998	-0.719612
4.580000	-0.006998	-0.718338
4.585000	-0.005726	-0.729805
4.590000	-0.010812	-0.708146
4.595000	-0.009541	-0.710694
4.600000	-0.015898	-0.717064
4.605000	-0.005726	-0.719612
4.610000	-0.008269	-0.722160
4.615000	-0.009541	-0.723434
4.620000	-0.009541	-0.718338
4.625000	-0.006998	-0.724708
4.630000	-0.009541	-0.728530
4.635000	-0.013355	-0.725982
4.640000	-0.006998	-0.728530
4.645000	-0.012084	-0.728530
4.650000	-0.013355	-0.731079
4.655000	-0.010812	-0.720886
4.660000	-0.010812	-0.728530
4.665000	-0.009541	-0.724708
4.670000	-0.010812	-0.725982
4.675000	-0.017170	-0.718338
4.680000	-0.014627	-0.724708
4.685000	-0.014627	-0.719612
4.690000	-0.017170	-0.728530
4.695000	-0.012084	-0.729805
4.700000	-0.015898	-0.728530
4.705000	-0.014627	-0.723434
4.710000	-0.014627	-0.718338
4.715000	-0.008269	-0.724708
4.720000	-0.010812	-0.719612
4.725000	-0.008269	-0.728530
4.730000	-0.010812	-0.722160
4.735000	-0.009541	-0.728530
4.740000	-0.005726	-0.723434
4.745000	-0.008269	-0.727256
4.750000	-0.008269	-0.719612
4.755000	-0.010812	-0.722160
4.760000	-0.008269	-0.723434
4.765000	-0.019713	-0.725982
4.770000	-0.013355	-0.725982
4.775000	-0.014627	-0.724708
4.780000	-0.010812	-0.724708
4.785000	-0.010812	-0.723434
4.790000	-0.006998	-0.727256
4.795000	-0.009541	-0.723434
4.800000	-0.008269	-0.724708
4.805000	-0.012084	-0.728530
4.810000	-0.013355	-0.733627
4.815000	-0.014627	-0.724708
4.820000	-0.010812	-0.725982
4.825000	-0.010812	-0.719612
4.830000	-0.012084	-0.718338
4.835000	-0.006998	-0.719612
4.840000	-0.017170	-0.719612
4.845000	-0.005726	-0.723434
4.850000	-0.017170	-0.722160
4.855000	-0.013355	-0.718338
4.860000	-0.010812	-0.718338
4.865000	-0.004455	-0.724708
4.870000	-0.009541	-0.718338
4.875000	-0.010812	-0.723434
4.880000	-0.010812	-0.719612
4.885000	-0.015898	-0.718338
4.890000	-0.006998	-0.724708
4.895000	-0.010812	-0.723434
4.900000	-0.006998	-0.727256
4.905000	-0.009541	-0.719612
4.910000	-0.006998	-0.722160
4.915000	-0.013355	-0.714516
4.920000	-0.009541	-0.719612
4.925000	-0.001911	-0.722160
4.930000	-0.006998	-0.724708
4.935000	-0.010812	-0.720886
4.940000	-0.008269	-0.720886
4.945000	-0.005726	-0.723434
4.950000	-0.005726	-0.728530
4.955000	-0.009541	-0.728530
4.960000	-0.010812	-0.723434
4.965000	-0.006998	-0.727256
4.970000	-0.013355	-0.723434
4.975000	-0.009541	-0.724708
4.980000	-0.014627	-0.723434
4.985000	-0.005726	-0.729805
4.990000	-0.014627	-0.723434
4.995000	-0.009541	-0.725982

